# Header: Project1::TD-Grain3::New Highlight Partition::Grain Size   7/10/2017
# 
# Column 1-3: Average orientation (phi1, PHI, phi2) in radians
# Column 4-5: Average Position (x, y) in microns
# Column 6: Average Image Quality (IQ)
# Column 7: Average Confidence Index (CI)
# Column 8: Average Fit (degrees)
# Column 9: An integer identifying the phase
#           1 -  Iron - Alpha
#           2 -  Austenite
  1.79639   0.60648   4.47218    47.430     0.401 2039.5  0.196  1.66   2 
  1.77268   0.60602   4.51991    46.885     3.228 2318.9  0.432  1.29   2 
  1.71860   0.60681   4.53149    45.984     0.588 1923.1  0.207  1.71   2 
  1.64218   0.56246   4.62997    41.414     3.789 2268.6  0.462  1.27   2 
  1.51741   0.57117   4.73909    38.517     2.526 2167.7  0.356  1.48   2 
  1.80945   0.60347   4.46508    47.380     2.610 2325.8  0.281  1.46   2 
  1.41367   0.55231   4.85487    34.831     2.631 1921.5  0.180  1.69   2 
  1.46211   0.55623   4.80481    36.292     2.843 2190.7  0.298  1.36   2 
  1.36687   0.53785   4.90109    33.946     2.858 2169.2  0.405  1.24   2 
  1.67338   0.56662   4.59401    42.425     3.144 2005.6  0.323  1.49   2 
  1.63366   0.54205   4.66204    39.812     7.199 2421.5  0.491  1.22   2 
  1.84433   0.63209   4.45672    48.900     3.248 1740.8  0.054  1.96   2 
  1.48411   0.53041   4.78745    35.858     3.706 2180.1  0.295  1.40   2 
  1.69855   0.65686   4.53821    52.641     4.076 2095.7  0.187  1.58   2 
  1.51896   0.53373   4.75859    35.073     4.887 2427.0  0.550  1.16   2 
  1.55233   0.54639   4.73330    36.453     4.662 2244.1  0.447  1.33   2 
  1.47498   0.66143   4.74276    41.250     4.547 1816.4  0.107  1.90   2 
  1.52669   0.55571   4.72462    32.063     5.261 1962.4  0.000  2.37   2 
  1.57371   0.54772   4.70947    37.220     5.947 2085.2  0.307  1.46   2 
  1.66494   0.65555   4.56141    53.512     5.521 2304.9  0.605  0.93   2 
  1.78386   0.56175   4.56540    45.512     7.141 2393.9  0.420  1.28   2 
  1.51646   0.51599   4.76265    33.925     5.716 2053.9  0.117  1.82   2 
  1.47591   0.51018   4.77579    33.506     6.008 2186.2  0.197  1.62   2 
  1.73358   0.59549   4.57173    52.146     7.453 2289.5  0.379  1.36   2 
  1.65736   0.62978   4.55135    53.588     6.041 2258.1  0.684  1.21   2 
  1.65020   0.56847   4.59331    53.694     7.599 2175.4  0.335  1.39   2 
  1.59072   0.52446   4.70809    33.430     6.649 2190.1  0.451  1.36   2 
  1.59722   0.54966   4.69001    36.137     7.129 2390.6  0.461  1.34   2 
  1.56324   0.51185   4.71246    32.925     6.495 1976.9  0.042  1.78   2 
  1.59056   0.53941   4.69886    34.895     8.749 2456.0  0.518  1.23   2 
  1.59531   0.54094   4.67464    37.408     7.762 2388.6  0.477  1.26   2 
  1.79781   0.59373   4.56765    49.718     8.340 2495.9  0.500  1.16   2 
  1.56784   0.50479   4.70276    32.775     6.755 1756.9  0.226  1.53   2 
  1.82138   0.57102   4.54589    47.829     7.498 2169.1  0.335  1.34   2 
  1.55620   0.51603   4.70914    31.925     7.950 2488.2  0.580  1.10   2 
  1.64084   0.54191   4.68253    42.986     8.190 2291.3  0.349  1.40   2 
  1.65558   0.53003   4.65791    40.571     8.377 2257.9  0.359  1.39   2 
  1.77349   0.54701   4.59188    45.113     8.509 2774.2  0.595  1.00   2 
  1.63552   0.53001   4.66971    41.857     9.596 2242.1  0.395  1.41   2 
  1.73680   0.58749   4.62416    48.488     9.465 1923.4  0.188  1.69   2 
  1.70076   0.59578   4.57326    29.737     9.158 1949.3  0.000  1.87   2 
  1.61036   0.54208   4.68715    32.357     9.860 2488.2  0.534  1.17   2 
  1.61299   0.53306   4.67808    37.404     9.389 2315.5  0.439  1.27   2 
  1.70233   0.54467   4.64386    43.716     9.699 2339.3  0.455  1.21   2 
  1.68068   0.53633   4.59009    52.577     9.911 2203.6  0.377  1.44   2 
  1.75717   0.58189   4.61468    47.879    10.096 1982.3  0.168  1.72   2 
  1.59078   0.51988   4.67503    30.025    10.834 2449.8  0.559  1.21   2 
  1.81730   0.56515   4.56640    45.863     9.548 2120.0  0.000  2.01   2 
  1.70134   0.54255   4.64866    44.386    10.510 2229.0  0.376  1.31   2 
  1.64161   0.52143   4.67366    40.350    10.522 2516.6  0.214  1.51   2 
  1.59808   0.51828   4.69291    37.436    11.789 2454.8  0.512  1.27   2 
  1.60079   0.52549   4.69517    40.730    11.230 2323.7  0.452  1.24   2 
  1.67306   0.55442   4.66852    49.801    11.174 2217.0  0.418  1.37   2 
  1.80150   0.54597   4.53841    30.638    10.977 1881.4  0.060  2.41   2 
  1.64964   0.55562   4.69616    48.146    12.178 2325.2  0.495  1.21   2 
  1.56718   0.54496   4.70571    53.719    12.182 2072.9  0.292  1.51   2 
  1.72135   0.57192   4.64820    45.750    11.172 2483.3  0.333  1.55   2 
  1.59302   0.53967   4.70359    35.185    13.748 2537.9  0.543  1.21   2 
  1.62040   0.52394   4.68523    39.190    12.845 2530.0  0.572  1.10   2 
  1.59483   0.55193   4.69288    31.404    12.592 2350.0  0.471  1.25   2 
  1.59583   0.54778   4.69319    33.159    12.422 2041.1  0.237  1.60   2 
  1.69114   0.56730   4.66806    44.789    12.389 2492.1  0.571  1.08   2 
  1.67457   0.56805   4.67758    46.555    12.306 2310.7  0.338  1.42   2 
  1.63626   0.52403   4.68573    40.388    12.471 2398.3  0.493  1.23   2 
  1.70967   0.56557   4.65123    43.225    12.341 2173.3  0.095  1.66   2 
  1.59206   0.53597   4.70045    36.087    12.541 2177.3  0.355  1.38   2 
  1.62191   0.57733   4.73524    50.925    12.471 1760.6  0.238  1.52   2 
  1.64585   0.58242   4.69635    52.033    12.615 2171.1  0.412  1.44   2 
  1.54919   0.57524   4.68816    60.128    13.750 2261.5  0.433  1.30   2 
  1.49850   0.56547   4.67723    59.475    12.653 1906.4  0.107  2.07   2 
  1.66098   0.56997   4.70189    50.175    12.731 2253.8  0.452  1.29   2 
  1.67036   0.59313   4.70006    50.775    12.731 2546.0  0.589  1.12   2 
  1.39644   0.63303   4.82719    54.675    12.774 1646.7  0.008  1.98   2 
  1.50312   0.57324   4.67412    58.725    13.026 1819.5  0.143  1.76   2 
  1.59625   0.54652   4.68579    27.029    15.521 2058.1  0.330  1.54   2 
  1.54164   0.52751   4.69088    54.813    13.200 1897.9  0.255  1.67   2 
  1.66633   0.53190   4.66330    40.837    13.120 1942.4  0.074  1.87   2 
  1.65672   0.56437   4.69923    46.826    13.452 2355.8  0.507  1.15   2 
  1.65297   0.60489   4.71394    50.900    13.077 2304.7  0.381  1.46   2 
  1.64124   0.60248   4.71715    51.313    13.229 2139.7  0.210  1.72   2 
  1.55797   0.58254   4.74527    52.950    13.510 2301.2  0.424  1.45   2 
  1.67828   0.56781   4.68830    44.850    13.120 2444.9  0.178  1.40   2 
  1.56842   0.55909   4.70741    30.540    14.331 2239.5  0.432  1.34   2 
  1.67002   0.54890   4.67962    42.475    13.380 2200.7  0.401  1.32   2 
  1.64827   0.56657   4.70442    45.705    14.061 2470.7  0.485  1.21   2 
  1.59907   0.55141   4.68670    33.970    13.816 2379.2  0.431  1.17   2 
  1.52764   0.53368   4.73032    61.895    13.960 2002.0  0.378  1.58   2 
  1.61279   0.53158   4.68561    37.482    14.054 2325.6  0.394  1.42   2 
  1.67111   0.54933   4.68207    42.375    13.770 2265.1  0.107  1.69   2 
  1.68330   0.58632   4.68890    50.775    13.813 1746.5  0.282  1.84   2 
  1.60861   0.59408   4.73932    51.607    14.289 2159.4  0.281  1.56   2 
  1.35958   0.60189   4.89818    30.788    14.095 1912.4  0.357  2.37   2 
  1.52947   0.52222   4.68947    26.513    14.224 1697.1  0.233  1.42   2 
  1.55421   0.56873   4.72406    32.224    17.115 2564.9  0.519  1.26   2 
  1.68971   0.55274   4.66522    40.340    14.549 2629.4  0.584  1.02   2 
  1.64820   0.55628   4.70520    44.550    14.376 2236.8  0.151  1.69   2 
  1.50044   0.55133   4.72661    54.872    14.962 2140.6  0.470  1.31   2 
  1.53038   0.53760   4.74265    53.928    14.877 2249.3  0.481  1.17   2 
  1.52136   0.60934   4.71911    57.945    16.387 2290.5  0.403  1.37   2 
  1.64317   0.53709   4.67993    38.845    15.717 2612.8  0.559  1.08   2 
  1.69565   0.55156   4.66506    42.375    14.809 2658.5  0.809  1.12   2 
  1.61700   0.51740   4.63670    63.032    15.254 1819.9  0.207  1.76   2 
  1.54914   0.56713   4.77570    51.751    15.913 2549.1  0.516  1.25   2 
  1.56658   0.58029   4.69227    60.912    15.469 1927.9  0.286  1.77   2 
  1.64984   0.55474   4.70782    40.912    15.134 2113.4  0.060  1.73   2 
  1.66328   0.55100   4.68332    43.012    15.134 2177.8  0.256  1.48   2 
  1.60327   0.52877   4.72481    45.075    15.285 2108.7  0.290  1.52   2 
  1.52714   0.57839   4.72673    29.256    16.885 2253.8  0.411  1.34   2 
  1.46181   0.54746   4.72192    61.500    15.545 1622.2  0.062  2.00   2 
  1.64456   0.54045   4.68073    41.358    15.819 2429.7  0.443  1.24   2 
  1.59293   0.56644   4.67660    62.167    15.945 2066.9  0.398  1.48   2 
  1.60366   0.53494   4.72393    44.900    15.675 1977.7  0.302  1.41   2 
  1.59477   0.54983   4.73969    43.764    16.159 2417.9  0.540  1.32   2 
  1.57209   0.54461   4.71510    63.727    16.514 2136.2  0.372  1.54   2 
  1.52658   0.62117   4.70272    56.550    16.640 2136.2  0.418  1.32   2 
  1.49244   0.56076   4.77779    54.660    16.787 2140.7  0.409  1.38   2 
  1.57525   0.55738   4.75291    42.194    17.934 2249.2  0.348  1.52   2 
  1.50812   0.59823   4.72135    60.840    16.856 1580.9  0.215  1.69   2 
  1.60106   0.54210   4.69404    36.140    17.174 2221.1  0.330  1.53   2 
  1.62833   0.55365   4.70246    38.092    17.784 2552.5  0.520  1.14   2 
  1.66181   0.56418   4.68759    39.947    17.326 2648.9  0.526  1.16   2 
  1.54707   0.53854   4.77976    51.112    17.082 2373.7  0.550  1.33   2 
  1.44935   0.53169   4.83123    53.050    17.191 2182.1  0.342  1.30   2 
  1.58847   0.56261   4.72276    35.509    18.440 2560.1  0.493  1.27   2 
  1.62258   0.57924   4.68387    62.330    17.442 2276.2  0.323  1.41   2 
  1.60489   0.54361   4.73714    43.975    17.450 2115.9  0.127  1.76   2 
  1.57666   0.54607   4.67877    24.862    17.732 1621.9  0.595  1.10   2 
  1.56116   0.61535   4.70690    60.931    18.633 2162.4  0.376  1.45   2 
  1.55916   0.57197   4.72148    23.925    18.354 1729.4  0.204  1.78   2 
  1.58108   0.58912   4.70226    57.058    24.007 2434.7  0.552  1.12   2 
  1.51708   0.51758   4.78707    64.425    17.927 1900.6  0.602  1.87   2 
  1.55829   0.57830   4.73107    63.462    18.638 2023.9  0.284  1.59   2 
  1.48611   0.55520   4.82741    49.751    19.072 2467.0  0.521  1.15   2 
  1.59934   0.59547   4.70596    24.862    18.251 1618.4  0.018  1.82   2 
  1.58279   0.61525   4.72790    27.188    19.265 2153.1  0.335  1.62   2 
  1.60411   0.57324   4.71236    37.156    18.414 2153.9  0.360  1.47   2 
  1.46211   0.52915   4.83027    52.419    19.109 2490.6  0.574  1.11   2 
  1.62356   0.62080   4.65663    62.475    18.576 2075.9  0.268  1.54   2 
  1.56862   0.57541   4.71547    34.324    19.166 2148.5  0.270  1.59   2 
  1.51608   0.52085   4.78789    51.188    18.511 2198.4  0.167  1.58   2 
  1.51821   0.56852   4.79361    65.015    19.123 1961.1  0.184  1.66   2 
  1.51082   0.60672   4.76061    29.464    20.885 2416.7  0.480  1.20   2 
  1.60083   0.59314   4.69033    60.401    23.932 2176.6  0.403  1.40   2 
  1.58423   0.57416   4.73261    38.085    21.443 2393.3  0.439  1.40   2 
  1.57820   0.55719   4.73744    41.060    19.705 2326.3  0.461  1.41   2 
  1.51815   0.60005   4.76165    59.801    19.570 2255.3  0.316  1.51   2 
  1.61712   0.58123   4.71994    40.047    20.871 2331.3  0.415  1.33   2 
  1.59760   0.61152   4.74346    25.762    19.810 2248.8  0.211  1.63   2 
  1.55983   0.56126   4.78045    45.713    19.810 1886.5  0.131  1.74   2 
  1.43848   0.57794   4.86017    66.771    20.738 1940.4  0.281  1.62   2 
  1.57193   0.58942   4.72473    21.873    20.748 1951.1  0.216  1.61   2 
  1.47865   0.53492   4.81204    50.955    20.135 1952.5  0.250  1.58   2 
  1.59152   0.62579   4.69919    62.190    20.948 2016.4  0.298  1.61   2 
  1.55341   0.62034   4.72787    63.661    20.472 2306.1  0.453  1.53   2 
  1.50070   0.54250   4.68934    19.125    20.265 1579.9  0.143  1.93   2 
  1.59003   0.59305   4.75840    25.207    20.466 1832.3  0.161  1.85   2 
  1.54022   0.62838   4.73660    60.625    20.373 2265.4  0.226  1.54   2 
  1.50555   0.53623   4.69699    18.477    20.501 1678.1  0.180  1.76   2 
  1.53364   0.55584   4.69299    19.627    21.082 1932.6  0.262  1.62   2 
  1.60801   0.61097   4.73772    26.550    20.548 2435.8  0.478  1.31   2 
  1.53118   0.60116   4.75131    34.888    23.169 2423.0  0.454  1.28   2 
  1.51224   0.54564   4.80973    52.658    20.597 2211.9  0.255  1.58   2 
  1.46732   0.56099   4.83866    49.379    21.348 2353.1  0.512  1.23   2 
  1.60054   0.63641   4.72489    24.172    21.365 2459.9  0.481  1.48   2 
  1.60738   0.61959   4.69350    61.545    21.320 2191.5  0.353  1.53   2 
  1.56737   0.61403   4.73768    27.346    21.191 2028.7  0.242  1.69   2 
  1.61896   0.58513   4.73844    26.381    21.077 1996.9  0.318  1.47   2 
  1.61318   0.56085   4.71533    36.921    21.360 2159.7  0.304  1.46   2 
  1.52488   0.56815   4.80514    47.691    21.726 2421.9  0.434  1.25   2 
  1.53254   0.57400   4.80268    44.063    21.629 2468.8  0.500  1.79   2 
  1.53757   0.60995   4.70899    20.164    22.607 1946.8  0.273  1.60   2 
  1.45686   0.56141   4.83738    51.522    23.834 2384.9  0.445  1.29   2 
  1.51157   0.53598   4.81252    52.700    21.910 2331.0  0.083  1.62   2 
  1.52415   0.64782   4.76758    25.104    22.863 2307.8  0.435  1.23   2 
  1.63472   0.58084   4.71863    42.450    22.055 1843.5  0.286  1.90   2 
  1.61308   0.63316   4.65448    62.748    22.355 2039.3  0.368  1.48   2 
  1.56447   0.63911   4.75149    22.604    23.398 2246.1  0.392  1.42   2 
  1.65033   0.60742   4.71378    41.925    22.343 2264.6  0.717  1.45   2 
  1.38302   0.54363   4.88070    49.570    22.482 2353.9  0.344  1.37   2 
  1.51193   0.60941   4.73214    64.762    22.864 2349.7  0.371  1.40   2 
  1.55332   0.56412   4.76986    44.260    23.975 2550.8  0.528  1.24   2 
  1.46625   0.58712   4.75829    66.440    22.586 2031.6  0.286  1.46   2 
  1.62094   0.58588   4.73013    40.125    23.278 2064.4  0.179  1.79   2 
  1.44110   0.55102   4.85430    50.202    23.182 2042.9  0.267  1.55   2 
  1.43192   0.56465   4.86596    47.025    23.383 2494.0  0.437  1.31   2 
  1.52858   0.55678   4.80639    53.400    22.993 2417.7  0.107  1.62   2 
  1.38767   0.55583   4.77680     9.150    23.296 1791.9  0.256  1.63   2 
  1.46181   0.62151   4.75523    28.660    23.533 1937.3  0.324  1.67   2 
  1.49117   0.63063   4.76031    25.175    26.641 2266.2  0.399  1.36   2 
  1.52358   0.61681   4.70051    18.013    24.237 2149.4  0.461  1.28   2 
  1.50189   0.63314   4.72749    29.813    23.448 1768.3  0.131  1.65   2 
  1.43262   0.59783   4.73623    16.800    23.642 1660.6  0.072  1.92   2 
  1.51028   0.62663   4.73363    31.020    24.302 2241.7  0.333  1.41   2 
  1.42830   0.56588   4.83852    49.024    24.304 2534.9  0.511  1.19   2 
  1.55125   0.64826   4.73202    20.081    23.870 1647.9  0.033  1.91   2 
  1.47176   0.56951   4.70781     9.214    24.117 1640.1  0.142  1.91   2 
  1.47444   0.59799   4.72890    66.285    24.145 2206.0  0.338  1.42   2 
  1.53910   0.62071   4.72802    32.969    24.281 2227.7  0.405  1.30   2 
  1.43791   0.56991   4.81752    47.720    25.273 2331.3  0.456  1.36   2 
  1.45390   0.55081   4.85712    52.924    24.628 2226.6  0.426  1.30   2 
  1.43935   0.58886   4.72340    15.938    24.357 1819.8  0.077  1.80   2 
  1.42868   0.55712   4.74776    14.077    25.334 2031.1  0.446  1.42   2 
  1.55681   0.66036   4.72788    20.102    25.813 2259.1  0.411  1.38   2 
  1.55854   0.56289   4.76651    55.205    24.722 2021.2  0.194  1.81   2 
  1.48590   0.61410   4.74308    34.047    25.667 2510.9  0.502  1.20   2 
  1.54207   0.56305   4.76240    42.150    24.855 2297.4  0.318  1.53   2 
  1.54625   0.56955   4.78083    43.388    25.400 2467.7  0.458  1.36   2 
  1.50301   0.60714   4.73316    67.863    24.747 2045.0  0.192  1.55   2 
  1.57296   0.59783   4.74463    38.758    25.089 2019.7  0.165  1.75   2 
  1.53918   0.58627   4.74037    39.940    27.624 2449.7  0.476  1.28   2 
  1.60107   0.58282   4.67858    63.948    25.388 2132.5  0.407  1.36   2 
  1.53581   0.65547   4.73585    16.357    27.716 2176.3  0.332  1.61   2 
  1.47333   0.60397   4.69643    10.582    25.557 1692.5  0.240  1.77   2 
  1.43510   0.60359   4.76411    30.337    25.136 2108.9  0.280  1.58   2 
  1.48431   0.62337   4.73770    32.189    25.166 2221.7  0.379  1.35   2 
  1.54107   0.65971   4.76523    22.125    25.201 1903.2  0.214  1.87   2 
  1.48573   0.61366   4.75008    31.166    26.369 2496.7  0.484  1.16   2 
  1.54215   0.56293   4.77078    54.344    26.122 2320.3  0.416  1.37   2 
  1.58716   0.55103   4.75835    55.613    25.266 3167.3  0.916  0.77   2 
  1.62379   0.56388   4.72707    56.250    25.721 2598.8  0.517  1.17   2 
  1.47362   0.56750   4.78669    45.797    26.809 2255.4  0.427  1.36   2 
  1.42585   0.58655   4.86273    51.090    26.622 2199.0  0.432  1.34   2 
  1.55465   0.57325   4.68484    65.789    27.122 2300.1  0.450  1.32   2 
  1.60082   0.55635   4.74236    55.765    26.474 2280.4  0.339  1.45   2 
  1.49742   0.58534   4.77108    43.139    29.487 2488.7  0.525  1.21   2 
  1.43430   0.57972   4.82423    48.005    27.874 2446.2  0.485  1.24   2 
  1.40951   0.58331   4.81723    47.073    26.739 2365.8  0.477  1.28   2 
  1.46628   0.57428   4.82939    52.432    26.845 2129.5  0.325  1.48   2 
  1.53396   0.61053   4.74709    36.705    27.358 2179.6  0.307  1.57   2 
  1.49145   0.61600   4.76251    27.010    27.127 1944.4  0.341  1.43   2 
  1.49185   0.61286   4.74420    29.131    27.168 2245.9  0.279  1.51   2 
  1.51684   0.55942   4.77846    44.782    26.902 2076.9  0.348  1.51   2 
  1.45658   0.62486   4.72632    13.125    27.020 1880.6  0.000  1.75   2 
  1.53557   0.62325   4.72235    14.513    26.955 1758.3  0.047  1.84   2 
  1.47315   0.61954   4.75736    34.926    27.276 2222.8  0.334  1.45   2 
  1.53685   0.67088   4.73696    18.421    27.530 2395.3  0.438  1.33   2 
  1.52509   0.66292   4.76563    21.038    27.215 1608.4  0.071  1.98   2 
  1.49011   0.60589   4.76278    29.816    27.649 2474.0  0.541  1.24   2 
  1.47036   0.61648   4.70701    12.862    27.410 1895.0  0.095  2.01   2 
  1.44767   0.62449   4.76008    27.511    28.170 1934.3  0.278  1.55   2 
  1.45787   0.60526   4.77653    32.240    27.857 2787.7  0.631  0.99   2 
  1.40625   0.57130   4.87887    50.617    31.819 2495.3  0.522  1.17   2 
  1.41783   0.59547   4.74281     7.500    27.651 1934.3  0.243  1.65   2 
  1.42343   0.57921   4.73806     9.413    27.475 1861.4  0.131  1.60   2 
  1.50003   0.60837   4.68139    12.002    27.836 1940.7  0.338  1.44   2 
  1.52336   0.66365   4.76782    21.038    27.605 1701.3  0.012  2.28   2 
  1.53521   0.60948   4.73438    37.463    28.400 2679.4  0.559  1.15   2 
  1.40718   0.59282   4.74592     9.188    27.734 1868.6  0.036  2.11   2 
  1.51957   0.64499   4.69821    13.036    28.782 1981.6  0.304  1.59   2 
  1.57059   0.65467   4.72861    20.740    28.129 2464.3  0.409  1.58   2 
  1.45434   0.61071   4.77601    34.042    28.454 2419.2  0.444  1.30   2 
  1.40594   0.59892   4.74930     6.412    27.994 1542.8  0.208  1.72   2 
  1.68122   0.67016   4.56922    15.825    28.016 2219.5  0.226  1.83   2 
  1.47334   0.60618   4.77347    30.371    28.384 2191.9  0.164  1.69   2 
  1.40133   0.57727   4.84604    50.266    28.638 2292.4  0.381  1.34   2 
  1.66147   0.54285   4.69078    57.412    28.254 2210.6  0.095  1.84   2 
  1.55209   0.66930   4.73956    17.950    28.406 2130.5  0.226  1.65   2 
  1.55563   0.65817   4.74572    19.913    28.384 1920.6  0.119  1.98   2 
  1.54308   0.58859   4.74997    42.551    28.464 2290.2  0.406  1.54   2 
  1.55683   0.57530   4.77112    56.040    28.475 2029.3  0.055  1.72   2 
  1.53541   0.66403   4.76468    19.390    28.938 2356.6  0.452  1.39   2 
  1.51103   0.59339   4.76032    38.375    32.503 2316.1  0.463  1.29   2 
  1.63737   0.61861   4.61864    60.794    29.393 2214.1  0.386  1.43   2 
  1.50125   0.66013   4.76117    20.589    29.157 2181.1  0.390  1.40   2 
  1.41516   0.62216   4.79823    31.216    29.178 2249.0  0.312  1.42   2 
  1.47048   0.58591   4.82726    53.631    29.820 2456.2  0.462  1.28   2 
  1.59822   0.56731   4.68369    65.017    29.394 1895.2  0.302  1.62   2 
  1.46661   0.60600   4.78851    34.240    30.857 2167.9  0.317  1.51   2 
  1.50598   0.63191   4.67882    11.400    29.012 1859.6  0.179  1.67   2 
  1.45930   0.60061   4.78926    33.008    29.963 2589.9  0.554  1.14   2 
  1.44833   0.59516   4.81261    45.267    31.655 2410.0  0.475  1.25   2 
  1.61440   0.56364   4.72728    57.439    29.717 1914.6  0.349  1.57   2 
  1.39069   0.61273   4.76983     7.425    29.807 1805.2  0.209  1.72   2 
  1.49582   0.62932   4.68777    11.230    29.748 1819.4  0.141  1.83   2 
  1.48141   0.59743   4.76919    38.813    29.423 2071.4  0.125  1.91   2 
  1.46983   0.61364   4.76688    28.027    29.943 2137.4  0.347  1.49   2 
  1.40194   0.61761   4.82698    30.061    32.573 2391.0  0.408  1.34   2 
  1.56724   0.66853   4.68732    12.488    29.972 1983.1  0.405  1.61   2 
  1.50208   0.67511   4.77499    16.650    29.878 1783.4  0.199  1.75   2 
  1.62005   0.59416   4.64791    62.668    31.177 2289.8  0.503  1.25   2 
  1.29477   0.57086   4.90469     6.431    29.910 1375.1  0.071  2.32   2 
  1.52350   0.55701   4.80150    55.819    31.152 2300.4  0.464  1.43   2 
  1.50777   0.66032   4.79838    16.860    30.294 2009.6  0.141  1.84   2 
  1.48560   0.66469   4.75453    20.475    30.354 1523.0  0.036  2.46   2 
  1.50193   0.60642   4.73816    36.531    30.893 2291.3  0.390  1.36   2 
  1.59279   0.66768   4.68367    13.867    30.628 1858.9  0.071  1.83   2 
  1.43940   0.56582   4.85843    54.002    31.187 2457.8  0.481  1.23   2 
  1.29434   0.56237   4.88810     5.182    30.812 1843.3  0.277  1.67   2 
  1.47104   0.64024   4.76265    26.300    30.878 2304.3  0.455  1.34   2 
  1.45456   0.65048   4.77054    22.963    32.112 2749.6  0.556  1.08   2 
  1.41184   0.61762   4.77480     8.531    30.885 1634.2  0.188  1.98   2 
  1.51037   0.67079   4.75914    15.638    30.852 2226.3  0.792  0.92   2 
  1.61713   0.56444   4.73485    58.238    30.982 2098.6  0.208  1.49   2 
  1.59229   0.66837   4.68060    13.181    31.144 1988.6  0.313  1.62   2 
  1.42272   0.61518   4.77327     8.080    31.791 1755.7  0.157  1.78   2 
  1.35908   0.60591   4.82217     5.192    33.465 1934.7  0.283  1.63   2 
  1.50285   0.66790   4.71740    10.725    31.307 2074.1  0.421  1.41   2 
  1.44104   0.63814   4.77399    25.106    31.642 1943.2  0.192  1.62   2 
  1.45181   0.57528   4.84497    47.708    31.476 2282.2  0.373  1.38   2 
  1.65825   0.59275   4.57513    60.707    32.216 1979.5  0.394  1.37   2 
  1.50019   0.67471   4.74500    21.712    31.502 2035.1  0.012  1.96   2 
  1.45818   0.64303   4.77623    26.832    31.765 2238.3  0.290  1.53   2 
  1.48589   0.66580   4.78168    17.953    32.510 2140.3  0.378  1.37   2 
  1.64701   0.56528   4.69863    58.950    31.697 2257.7  0.435  1.25   2 
  1.51813   0.66592   4.71354    10.433    32.000 2048.4  0.286  1.59   2 
  1.49022   0.66647   4.78042    19.151    32.396 2636.4  0.593  1.04   2 
  1.44453   0.66025   4.80757    20.325    34.512 2494.0  0.536  1.12   2 
  1.58076   0.55795   4.74365    57.003    32.676 2345.7  0.523  1.29   2 
  1.35508   0.57943   4.92600    50.262    32.496 2359.2  0.335  1.41   2 
  1.26008   0.57006   4.90439     3.825    32.542 1596.6  0.172  1.89   2 
  1.44815   0.63144   4.78324    26.210    33.014 2374.4  0.450  1.24   2 
  1.47586   0.65560   4.74567     9.342    32.617 1991.0  0.216  1.64   2 
  1.52522   0.67299   4.74311    12.075    32.379 2152.1  0.261  1.46   2 
  1.40159   0.63092   4.80758    27.460    32.651 2338.0  0.457  1.26   2 
  1.48013   0.60753   4.78333    41.968    32.649 2374.7  0.485  1.21   2 
  1.71105   0.55113   4.63356    63.213    32.586 1938.2  0.170  1.70   2 
  1.48241   0.67089   4.79322    16.980    32.606 1938.9  0.481  1.12   2 
  1.45100   0.64338   4.77368    24.338    33.171 2598.9  0.552  1.06   2 
  1.43960   0.59653   4.79538    34.723    33.649 2590.2  0.528  1.21   2 
  1.47964   0.58704   4.76929    35.828    32.905 2321.3  0.418  1.42   2 
  1.46643   0.60825   4.78001    33.586    33.066 2311.6  0.315  1.43   2 
  1.40711   0.61533   4.82837    31.972    34.023 2180.5  0.360  1.39   2 
  1.81817   0.56653   4.56047    62.588    33.190 1331.7  0.030  2.09   2 
  1.47962   0.58776   4.79774    42.459    33.590 2198.5  0.336  1.49   2 
  1.72423   0.61996   4.51813    61.507    33.598 1791.8  0.226  1.73   2 
  1.54485   0.66646   4.75233    14.513    33.450 1950.6  0.310  1.72   2 
  1.49026   0.59600   4.78066    40.966    33.963 2339.2  0.430  1.23   2 
  1.35405   0.56730   4.95451    50.190    33.723 2292.6  0.429  1.31   2 
  1.45144   0.55405   4.87117    54.094    33.613 2017.7  0.378  1.73   2 
  1.41509   0.56634   4.89872    54.854    34.231 2414.8  0.523  1.20   2 
  1.69114   0.56325   4.67071    59.250    33.567 2072.4  0.195  1.55   2 
  1.44222   0.57387   4.83248    44.608    36.622 2354.8  0.485  1.27   2 
  1.73338   0.55303   4.59630    60.173    33.866 1782.7  0.257  1.79   2 
  1.51398   0.58039   4.76576    39.097    34.470 2110.5  0.346  1.46   2 
  1.41754   0.60164   4.83347    42.914    34.177 2138.5  0.273  1.59   2 
  1.42228   0.63553   4.79823    23.596    34.684 2361.9  0.383  1.31   2 
  1.73174   0.55503   4.62986    62.875    34.165 2413.2  0.631  0.98   2 
  1.39679   0.63399   4.81859    25.631    34.606 2317.4  0.365  1.38   2 
  1.30757   0.60205   4.84613     4.505    34.777 1817.5  0.328  1.63   2 
  1.48613   0.66815   4.80203    16.623    34.460 2629.4  0.655  0.91   2 
  1.64064   0.54289   4.63967    62.254    35.223 1956.2  0.346  1.44   2 
  1.57925   0.56198   4.72801    63.173    34.814 2065.0  0.385  1.63   2 
  1.43092   0.64699   4.80747    27.530    35.241 2083.5  0.229  1.68   2 
  1.43496   0.60719   4.80699    32.974    35.211 2606.2  0.561  1.20   2 
  1.64327   0.56106   4.71014    60.228    35.149 2197.8  0.495  1.16   2 
  1.34889   0.58699   4.82168     4.350    36.349 1815.5  0.261  1.73   2 
  1.45637   0.58003   4.80205    40.497    35.768 2315.3  0.447  1.33   2 
  1.39662   0.66185   4.82825    23.205    37.484 2434.1  0.465  1.33   2 
  1.38076   0.61749   4.84398    29.566    36.608 2273.7  0.317  1.51   2 
  1.42755   0.62584   4.79299    31.688    35.269 1872.3  0.047  1.95   2 
  1.32294   0.53106   4.94514    52.613    35.529 1997.9  0.155  2.06   2 
  1.41699   0.66539   4.80903    25.456    36.269 2542.6  0.455  1.33   2 
  1.45469   0.56499   4.86739    54.563    35.789 2022.4  0.286  1.60   2 
  1.28751   0.59653   4.86723     3.450    35.724 1618.2  0.024  2.10   2 
  1.39213   0.56063   4.91923    53.688    35.962 2387.8  0.454  1.29   2 
  1.31544   0.61376   4.84354     1.612    35.918 1479.5  0.036  1.97   2 
  1.29453   0.62555   4.85694     3.042    36.099 1641.0  0.038  1.92   2 
  1.25675   0.56316   4.93637     2.100    36.027 1691.6  0.147  1.63   2 
  1.31271   0.60387   4.82537     3.900    36.027 1910.5  0.456  1.28   2 
  1.42521   0.65450   4.82833    26.888    36.048 1939.4  0.304  1.44   2 
  1.36800   0.56005   4.90974    48.227    37.970 2409.7  0.500  1.24   2 
  1.30537   0.57314   4.90086     1.800    36.200 1687.3  0.024  2.09   2 
  1.30509   0.55349   4.96028    51.638    36.395 2284.8  0.428  1.33   2 
  1.53588   0.55715   4.79794    58.661    36.317 2501.1  0.573  1.16   2 
  1.40089   0.65203   4.83445    26.578    36.870 2157.3  0.278  1.60   2 
  1.31130   0.60802   4.82703     2.588    36.438 1680.7  0.310  1.84   2 
  1.44531   0.61462   4.80467    32.034    38.968 2420.4  0.461  1.28   2 
  1.45614   0.58530   4.79576    39.578    37.437 2200.9  0.394  1.40   2 
  1.55793   0.57903   4.65828    62.763    37.166 1855.6  0.257  1.46   2 
  1.35685   0.62633   4.85584    28.234    36.860 2065.3  0.217  1.83   2 
  1.41072   0.56492   4.90536    55.894    36.665 1699.6  0.150  1.88   2 
  1.55002   0.55049   4.78531    58.243    36.707 2128.9  0.281  1.52   2 
  1.46099   0.58999   4.78006    37.015    37.123 2350.6  0.446  1.27   2 
  1.35009   0.59766   4.83544     1.500    36.893 1502.8  0.036  1.94   2 
  1.45787   0.59660   4.78601    34.467    37.412 2016.5  0.158  1.72   2 
  1.42401   0.66896   4.79522     5.172    37.406 1999.3  0.204  1.74   2 
  1.32142   0.54872   4.94939    49.876    38.443 2157.9  0.372  1.41   2 
  1.42271   0.67408   4.85245    16.650    37.239 2023.4  0.377  1.31   2 
  1.41000   0.66119   4.82928    19.184    38.177 2426.7  0.480  1.24   2 
  1.39758   0.63398   4.83798    29.775    37.542 2159.8  0.239  1.77   2 
  1.44428   0.57563   4.85042    46.090    37.659 2355.8  0.516  1.25   2 
  1.36852   0.55016   4.93533    52.925    37.196 2014.2  0.452  1.55   2 
  1.28032   0.59955   4.88091     1.157    37.759 1550.5  0.048  2.13   2 
  1.38616   0.64360   4.79267     4.313    37.711 2040.2  0.352  1.49   2 
  1.39056   0.63836   4.83671    26.659    37.885 2244.1  0.318  1.55   2 
  1.38743   0.55843   4.91311    52.208    37.658 2244.8  0.420  1.35   2 
  1.42918   0.65106   4.82529    20.719    37.705 2217.2  0.446  1.38   2 
  1.31433   0.59250   4.88072     1.597    38.822 1921.8  0.296  1.67   2 
  1.43882   0.59155   4.80850    40.772    38.602 2262.4  0.411  1.34   2 
  1.48862   0.60936   4.77692    35.305    38.260 2166.0  0.356  1.41   2 
  1.52590   0.59521   4.76155    38.448    38.461 2312.5  0.351  1.39   2 
  1.36528   0.55706   4.92572    51.411    38.507 2191.1  0.200  1.69   2 
  1.38050   0.65851   4.84498    20.458    39.080 2344.3  0.330  1.49   2 
  1.40109   0.64136   4.83865    27.768    38.635 2268.4  0.234  1.69   2 
  1.32746   0.58157   4.93690    60.524    42.723 2276.6  0.390  1.43   2 
  1.40023   0.63033   4.82594    26.362    38.646 1897.0  0.220  1.52   2 
  1.39791   0.63943   4.83451    29.556    39.019 2124.4  0.321  1.58   2 
  1.28929   0.60570   4.88046     3.037    38.906 1557.2  0.047  1.92   2 
  1.40098   0.65023   4.83137    25.105    39.951 2566.4  0.476  1.26   2 
  1.36490   0.67721   4.86553    16.635    39.309 2162.8  0.329  1.45   2 
  1.42909   0.67219   4.81600    24.317    39.568 2339.9  0.265  1.53   2 
  1.45274   0.59595   4.80298    39.172    39.820 2358.1  0.479  1.26   2 
  1.44364   0.57025   4.83629    44.463    41.042 2355.5  0.448  1.32   2 
  1.35266   0.54097   4.93664    52.537    39.166 1574.2  0.077  1.73   2 
  1.48862   0.57125   4.84412    58.688    39.166 1985.4  0.048  2.35   2 
  1.40925   0.67643   4.83863    17.339    39.479 2468.5  0.405  1.36   2 
  1.34091   0.55846   4.92168    50.284    39.862 2204.7  0.346  1.37   2 
  1.39796   0.64440   4.83662    28.661    40.192 2439.6  0.441  1.29   2 
  1.49114   0.60239   4.79079    34.663    40.259 2273.3  0.349  1.52   2 
  1.47619   0.58130   4.78165    36.574    40.174 2476.9  0.489  1.28   2 
  1.35408   0.55350   4.94309    53.063    39.686 2013.9  0.036  1.50   2 
  1.45592   0.57646   4.82694    41.114    39.987 2334.6  0.399  1.31   2 
  1.37241   0.56590   4.93610    53.800    39.837 1792.1  0.298  1.82   2 
  1.47061   0.56047   4.84788    55.050    39.880 2216.3  0.190  1.86   2 
  1.22916   0.54030   4.99142     0.225    40.010 1637.6  0.024  2.11   2 
  1.25800   0.58497   4.95896     1.438    40.582 2068.7  0.408  1.50   2 
  1.41604   0.67894   4.83034    17.738    40.205 2407.5  0.697  0.94   2 
  1.38749   0.66313   4.85509    20.871    40.512 2516.8  0.531  1.18   2 
  1.43514   0.67471   4.80460    23.250    40.140 2404.0  0.409  1.38   2 
  1.37074   0.56350   4.93668    53.400    40.097 2079.5  0.201  1.55   2 
  1.40846   0.68313   4.83716    40.200    40.140 2016.6  0.000  2.18   2 
  1.48478   0.56398   4.81540    43.056    40.588 2091.7  0.302  1.62   2 
  1.18007   0.59165   4.96712     0.419    40.649 1955.0  0.415  1.47   2 
  1.44341   0.60507   4.81113    33.282    41.678 2127.6  0.345  1.58   2 
  1.43356   0.59347   4.81865    38.229    42.460 2432.8  0.495  1.27   2 
  1.45805   0.57727   4.80431    41.422    41.088 2201.1  0.344  1.43   2 
  1.49444   0.55947   4.83200    57.068    40.648 2201.4  0.381  1.30   2 
  1.48047   0.58582   4.84065    58.313    40.335 2101.3  0.208  1.73   2 
  1.51498   0.57882   4.81358    58.800    40.766 2172.6  0.302  1.53   2 
  1.35482   0.66467   4.87607    18.608    42.722 2442.5  0.476  1.28   2 
  1.40777   0.57009   4.85094    47.970    41.575 2076.2  0.349  1.49   2 
  1.39087   0.65782   4.83404    22.591    42.301 2217.6  0.305  1.55   2 
  1.42729   0.65607   4.82417    25.448    41.128 1851.6  0.134  1.83   2 
  1.38817   0.55779   4.90579    51.633    41.812 2381.5  0.384  1.39   2 
  1.44394   0.61092   4.80302    30.458    43.305 2354.2  0.446  1.33   2 
  1.42582   0.56066   4.89144    50.519    41.385 2768.7  0.722  0.82   2 
  1.46752   0.60033   4.80634    34.773    41.653 2004.8  0.275  1.47   2 
  1.14651   0.57024   5.04455     0.405    41.543 1894.0  0.179  1.70   2 
  1.39937   0.67238   4.86232    16.677    41.699 2628.8  0.673  1.01   2 
  1.42968   0.55708   4.89093    49.950    41.483 1734.7  0.190  1.75   2 
  1.43984   0.63390   4.80430    24.352    48.256 2337.9  0.421  1.34   2 
  1.44862   0.56533   4.87301    56.269    41.829 2164.6  0.530  1.33   2 
  1.42412   0.62574   4.82417    27.886    42.316 2024.7  0.236  1.62   2 
  1.43969   0.59763   4.86730    57.786    42.728 2444.9  0.450  1.26   2 
  1.38207   0.65554   4.82608    24.188    42.024 1770.9  0.033  2.05   2 
  1.45522   0.64843   4.81357    25.519    42.493 2389.0  0.414  1.35   2 
  1.46198   0.60362   4.79343    35.438    42.511 2283.5  0.402  1.30   2 
  1.39807   0.54873   4.88869    44.694    42.558 1996.3  0.323  1.51   2 
  1.40608   0.63688   4.82759    22.886    45.068 2167.8  0.373  1.45   2 
  1.40597   0.56825   4.88286    47.224    43.878 2228.4  0.369  1.39   2 
  1.43432   0.57173   4.88472    49.725    42.706 2205.9  0.369  1.37   2 
  1.35795   0.56855   4.94511    52.537    42.544 2333.9  0.524  1.05   2 
  1.41802   0.62862   4.83374    25.758    43.424 2400.5  0.454  1.33   2 
  1.48084   0.58101   4.80771    40.408    43.181 2274.7  0.361  1.41   2 
  1.42417   0.57368   4.83080    45.702    43.197 2275.9  0.444  1.36   2 
  1.41263   0.58010   4.90810    51.497    42.885 2156.6  0.332  1.43   2 
  1.48437   0.60567   4.78943    33.820    43.152 2104.9  0.268  1.60   2 
  1.40783   0.55491   4.90465    54.550    42.868 2262.8  0.290  1.57   2 
  1.37154   0.68087   4.88732    14.220    43.024 2697.7  0.645  1.09   2 
  1.43373   0.57509   4.87672    48.383    45.137 2465.8  0.452  1.27   2 
  1.46931   0.60706   4.80040    30.950    46.976 2508.0  0.512  1.18   2 
  1.40638   0.54990   4.87819    43.609    43.317 2223.4  0.308  1.55   2 
  1.47126   0.60154   4.79272    34.596    43.654 2226.3  0.422  1.38   2 
  1.42065   0.57088   4.88537    48.443    43.869 2182.6  0.221  1.63   2 
  1.47779   0.62001   4.79565    31.388    43.323 2307.0  0.411  1.18   2 
  1.47390   0.57479   4.81019    40.337    44.897 2368.0  0.506  1.26   2 
  1.24640   0.59301   5.00417    60.058    43.688 2266.6  0.422  1.54   2 
  1.34957   0.67863   4.90704    13.692    43.893 2267.0  0.331  1.45   2 
  1.42744   0.59049   4.83163    36.605    44.057 2319.7  0.376  1.37   2 
  1.31834   0.59317   4.97791    58.613    44.379 2060.2  0.265  1.62   2 
  1.35145   0.68159   4.90283    14.700    43.907 2429.4  0.512  1.25   2 
  1.35036   0.67802   4.89086    14.928    44.525 2755.7  0.655  0.99   2 
  1.47994   0.57794   4.85212    54.525    43.907 2105.6  0.071  1.89   2 
  1.46596   0.59441   4.79565    32.891    45.178 2455.6  0.548  1.16   2 
  1.28058   0.55137   4.88452    62.350    44.167 1849.7  0.246  1.62   2 
  1.30131   0.67120   4.89281    16.543    45.327 2203.2  0.384  1.48   2 
  1.47889   0.56450   4.84601    50.730    44.323 1876.4  0.036  2.13   2 
  1.38813   0.68157   4.85999     8.400    44.341 2025.7  0.170  1.55   2 
  1.47023   0.61873   4.80125    28.533    45.069 2449.9  0.445  1.29   2 
  1.41982   0.56936   4.84255    43.663    44.698 2217.7  0.288  1.55   2 
  1.50364   0.58360   4.83873    54.863    44.362 2456.3  0.297  1.28   2 
  1.46490   0.58114   4.79564    36.061    44.911 2202.1  0.350  1.39   2 
  1.44460   0.56378   4.83384    42.493    47.617 2497.7  0.498  1.22   2 
  1.37029   0.67020   4.86279     8.175    44.817 2072.0  0.583  1.51   2 
  1.27964   0.68649   4.93471    18.450    44.774 1716.2  0.000  2.26   2 
  1.40546   0.62261   4.80600    34.106    45.303 2085.8  0.382  1.50   2 
  1.30426   0.67858   4.88750     6.526    45.441 2342.1  0.480  1.33   2 
  1.34361   0.66856   4.85597    20.187    45.077 2139.5  0.243  1.63   2 
  1.39288   0.63218   4.83247    24.412    45.267 2212.8  0.375  1.40   2 
  1.43214   0.56228   4.87988    51.675    45.044 2147.3  0.294  1.46   2 
  1.39388   0.67307   4.82304    21.263    45.271 1939.5  0.161  1.68   2 
  1.11131   0.57702   5.07773    59.664    49.018 2060.3  0.232  1.70   2 
  1.43498   0.59678   4.79737    35.602    46.001 2738.2  0.620  1.08   2 
  1.45291   0.59581   4.80290    38.204    45.670 2279.6  0.465  1.30   2 
  1.43877   0.57484   4.85297    44.968    46.011 2278.1  0.431  1.33   2 
  1.37872   0.67672   4.87775     7.997    45.580 2411.4  0.603  1.11   2 
  1.34768   0.68422   4.88024    17.925    45.466 2838.1  0.405  1.17   2 
  1.25807   0.59235   5.03231    58.459    46.100 2678.9  0.451  1.22   2 
  1.39518   0.64165   4.83249    20.547    47.157 2390.7  0.464  1.31   2 
  1.47916   0.62876   4.79999    27.190    46.065 2170.2  0.265  1.61   2 
  1.35009   0.55374   4.94501    52.782    46.078 2481.4  0.461  1.22   2 
  1.23471   0.64155   5.02726     5.147    46.551 2058.5  0.371  1.52   2 
  1.34868   0.67791   4.90846     7.260    46.090 2065.2  0.329  1.47   2 
  1.30383   0.64617   4.85626    19.170    46.384 2114.4  0.236  1.66   2 
  1.47678   0.61493   4.79046    28.058    46.708 2239.8  0.432  1.31   2 
  1.44041   0.60241   4.81129    36.516    47.170 2428.5  0.493  1.25   2 
  1.30009   0.68211   4.89703    15.919    46.278 1920.7  0.015  2.21   2 
  1.33848   0.56210   4.96004    53.963    46.311 2057.2  0.060  2.05   2 
  1.49490   0.64504   4.79180    26.362    46.441 1764.3  0.054  1.97   2 
  1.45618   0.58628   4.81713    38.843    46.700 2069.3  0.343  1.51   2 
  1.43505   0.57616   4.81219    39.814    47.483 2203.3  0.403  1.45   2 
  1.33805   0.66923   4.85451    17.434    47.338 2195.9  0.332  1.43   2 
  1.29211   0.56183   4.98986    53.908    47.279 2288.0  0.392  1.44   2 
  1.20542   0.56450   4.94831    62.213    46.765 1876.5  0.095  1.78   2 
  1.33706   0.56773   4.94909    53.373    47.049 2037.4  0.346  1.53   2 
  1.45481   0.60695   4.80403    34.348    48.014 2488.6  0.566  1.12   2 
  1.47323   0.56876   4.84229    45.707    47.641 2238.4  0.334  1.44   2 
  1.39862   0.65442   4.82484    17.944    49.841 2287.5  0.388  1.42   2 
  1.39187   0.55542   4.89477    48.919    47.672 2164.1  0.226  1.68   2 
  1.44119   0.58540   4.82258    37.434    48.179 2315.2  0.370  1.43   2 
  1.45940   0.56452   4.85628    46.891    47.551 2473.5  0.511  1.24   2 
  1.48614   0.62357   4.79334    26.291    48.447 2388.2  0.466  1.26   2 
  1.09107   0.56419   5.07051    61.563    47.831 1759.7  0.134  2.01   2 
  1.34149   0.67985   4.87388    15.493    47.820 2338.9  0.329  1.48   2 
  1.33681   0.68659   4.88280    14.314    48.120 2440.6  0.389  1.32   2 
  1.37005   0.63650   4.82313    20.839    48.746 2222.2  0.452  1.41   2 
  1.22158   0.55109   5.03700    54.900    47.935 2200.2  0.440  1.96   2 
  1.22426   0.58267   5.05151    56.985    48.038 1917.8  0.086  1.80   2 
  1.44283   0.61314   4.81738    32.173    49.621 2450.6  0.487  1.23   2 
  1.44764   0.57754   4.80632    40.962    48.284 2367.6  0.357  1.32   2 
  1.32864   0.67178   4.85038    18.375    48.259 2165.7  0.238  1.70   2 
  1.36240   0.56368   4.93843    52.508    48.613 2382.0  0.547  1.14   2 
  1.36862   0.68552   4.85002    13.313    48.389 2195.3  0.369  1.40   2 
  1.47066   0.57867   4.80180    38.614    48.677 2209.6  0.389  1.37   2 
  1.33119   0.67140   4.89554    12.722    48.974 2194.8  0.313  1.44   2 
  1.34915   0.65600   4.87102    13.792    50.496 2318.6  0.403  1.39   2 
  1.34992   0.67203   4.83205    17.625    48.584 2632.3  0.667  0.91   2 
  1.60845   0.60722   4.70316    41.025    48.584 2062.4  0.036  2.42   2 
  1.38927   0.56586   4.91333    47.632    49.009 2091.8  0.312  1.52   2 
  1.39288   0.55333   4.91491    49.783    48.844 2675.7  0.581  1.37   2 
  1.13774   0.56461   5.10464    56.934    48.828 2196.6  0.335  1.48   2 
  1.36407   0.64529   4.80938    22.688    48.779 2253.1  0.411  1.61   2 
  1.41122   0.55708   4.88326    45.222    49.215 2154.3  0.359  1.47   2 
  1.20434   0.57791   5.06402    57.863    48.779 2064.1  0.238  1.54   2 
  1.33306   0.67444   4.84575    16.875    48.844 1968.5  0.560  1.11   2 
  1.42051   0.65092   4.80880    22.007    49.222 2579.6  0.504  1.10   2 
  1.49601   0.61451   4.79746    27.515    49.738 2102.9  0.237  1.60   2 
  1.43555   0.58315   4.83321    37.539    50.123 2496.4  0.532  1.22   2 
  1.34887   0.67091   4.91423    13.038    49.503 2330.9  0.501  1.26   2 
  1.41861   0.55331   4.87170    46.588    49.667 2053.1  0.252  1.64   2 
  1.19813   0.55447   5.06112    55.650    49.234 2662.1  0.244  1.27   2 
  1.28954   0.67298   4.98193     8.513    49.428 2228.3  0.506  1.28   2 
  1.30170   0.54338   4.97347    51.075    49.623 2493.3  0.131  1.68   2 
  1.20749   0.56002   5.04024    55.058    49.963 2468.9  0.499  1.26   2 
  1.12897   0.57703   5.10496    58.162    49.428 2411.4  0.226  1.49   2 
  1.31470   0.65603   4.95767    11.585    49.943 2164.8  0.251  1.48   2 
  1.28501   0.67716   4.97466     8.250    49.710 2260.4  0.163  1.71   2 
  1.44030   0.58562   4.84048    41.138    50.078 2376.4  0.420  1.32   2 
  1.39185   0.55228   4.91687    49.162    49.688 2817.4  0.744  0.89   2 
  1.32288   0.54304   4.96141    51.600    49.970 1878.0  0.155  2.08   2 
  1.29765   0.67088   4.96485     7.463    50.078 2215.9  0.536  1.26   2 
  1.40364   0.55139   4.87610    44.509    50.409 2415.5  0.435  1.39   2 
  1.30280   0.55112   4.97352    50.244    50.278 2190.8  0.231  1.50   2 
  1.29656   0.68627   4.93592     7.993    50.291 2005.2  0.325  1.69   2 
  1.44349   0.57030   4.85627    47.238    50.383 2477.2  0.545  1.30   2 
  1.23202   0.54060   5.01354    52.775    50.316 2153.5  0.323  1.57   2 
  1.45373   0.57604   4.83226    39.831    52.537 2461.2  0.494  1.25   2 
  1.35719   0.56705   4.93141    48.692    51.238 2446.3  0.413  1.36   2 
  1.46622   0.60966   4.80339    28.174    54.957 2456.6  0.523  1.19   2 
  1.45267   0.60359   4.81415    33.911    55.239 2462.5  0.516  1.20   2 
  1.39488   0.57268   4.88974    45.726    51.501 2436.0  0.529  1.20   2 
  1.17374   0.54723   5.00504    62.562    51.068 2052.0  0.336  1.75   2 
  1.36746   0.66785   4.91841    10.425    50.662 2059.1  0.048  1.96   2 
  1.47661   0.61288   4.80104    28.758    51.005 2334.5  0.515  1.20   2 
  1.47054   0.60647   4.80626    30.764    51.935 2418.3  0.555  1.14   2 
  1.08840   0.58248   5.12640    55.500    50.792 2223.1  0.036  1.56   2 
  1.42937   0.65496   4.80196    19.607    51.312 2139.7  0.343  1.52   2 
  1.47681   0.60066   4.80902    35.207    51.581 2051.5  0.303  1.56   2 
  1.38703   0.54625   4.91646    44.175    51.182 2350.5  0.393  1.40   2 
  1.21406   0.53885   4.95180    63.188    51.377 1748.3  0.024  2.07   2 
  1.19552   0.56955   5.07350    55.012    51.507 2505.9  0.429  1.30   2 
  1.16465   0.56295   5.07794    55.442    51.716 1877.8  0.215  1.72   2 
  1.45157   0.66509   4.80537     9.065    52.086 2274.7  0.408  1.38   2 
  1.41231   0.66156   4.80772    17.080    51.996 2075.6  0.373  1.44   2 
  1.48225   0.61318   4.80510    29.141    52.114 2379.5  0.508  1.21   2 
  1.37814   0.67701   4.83868     8.250    51.788 2011.7  0.091  1.82   2 
  1.46090   0.66989   4.80034    17.885    52.057 2226.9  0.317  1.45   2 
  1.39898   0.66252   4.82758    18.950    51.788 2476.7  0.385  1.56   2 
  1.46600   0.60114   4.81780    34.517    52.889 2530.3  0.526  1.15   2 
  1.27134   0.57686   5.01328    54.150    51.990 1902.3  0.304  1.58   2 
  1.08762   0.57475   5.07322    59.391    51.946 2057.1  0.168  1.71   2 
  1.28683   0.57484   4.99426    51.067    52.866 2307.6  0.396  1.39   2 
  1.10268   0.54858   5.07564    61.630    52.233 2407.8  0.472  1.34   2 
  1.39767   0.63511   4.82516    13.130    52.533 2239.0  0.390  1.36   2 
  1.46605   0.59562   4.82080    36.444    52.934 2467.8  0.503  1.22   2 
  1.44754   0.55454   4.87630    47.588    52.286 2432.0  0.095  1.94   2 
  1.14101   0.55898   5.03906    60.358    53.061 2106.3  0.205  1.69   2 
  1.41565   0.65041   4.77052     9.579    52.734 2020.9  0.300  1.64   2 
  1.42051   0.63258   4.77241    11.291    53.066 2221.0  0.419  1.43   2 
  1.37502   0.65766   4.83292    14.235    52.987 2255.6  0.376  1.50   2 
  1.53404   0.60213   4.78362    25.286    52.790 2192.6  0.325  1.43   2 
  1.37962   0.57510   4.89556    44.664    53.528 2335.2  0.457  1.29   2 
  1.34491   0.56021   4.93025    47.950    52.395 2124.9  0.186  1.68   2 
  1.20393   0.57737   5.04453    52.843    53.010 2283.7  0.325  1.51   2 
  1.52903   0.61621   4.77144    23.529    52.797 2249.8  0.393  1.35   2 
  1.38314   0.66098   4.82804    16.113    52.921 2199.7  0.120  1.59   2 
  1.18334   0.57336   5.06519    55.067    53.030 2614.5  0.471  1.23   2 
  1.42966   0.65984   4.81374    16.573    54.442 2535.3  0.505  1.20   2 
  1.43655   0.64924   4.81508    19.070    53.478 2321.0  0.420  1.29   2 
  1.31893   0.56172   4.95380    48.638    53.066 1798.5  0.155  1.67   2 
  1.13982   0.54533   5.04438    61.812    53.021 2042.6  0.199  1.74   2 
  1.53797   0.60168   4.77306    24.863    54.778 2453.4  0.477  1.29   2 
  1.07877   0.56984   5.11829    57.263    53.374 2068.1  0.310  1.47   2 
  1.10568   0.57066   5.08343    58.472    53.281 2020.3  0.141  1.85   2 
  1.46448   0.64640   4.72787     8.484    53.268 2050.4  0.244  1.66   2 
  1.39601   0.55518   4.89865    47.438    53.261 2075.8  0.104  1.68   2 
  1.44710   0.62564   4.79652    20.069    56.083 2429.1  0.500  1.25   2 
  1.13425   0.57372   5.10379    55.688    53.326 2050.4  0.197  1.48   2 
  1.44905   0.65135   4.73891     9.038    53.455 1874.4  0.131  1.62   2 
  1.36448   0.64890   4.81531    12.613    53.585 2083.2  0.355  1.48   2 
  1.47813   0.63886   4.70647     8.150    53.650 1736.8  0.075  2.24   2 
  1.38352   0.67018   4.82663    15.334    54.186 2423.0  0.508  1.32   2 
  1.40549   0.62717   4.81527    29.641    54.009 2191.0  0.319  1.53   2 
  1.27210   0.57765   4.99913    49.669    53.748 2179.2  0.344  1.46   2 
  1.42811   0.67468   4.80282    14.004    54.076 2506.5  0.532  1.18   2 
  1.27980   0.57568   5.00545    52.136    54.170 2302.1  0.356  1.42   2 
  1.29791   0.59169   4.99717    53.492    54.000 2077.3  0.231  1.68   2 
  1.13287   0.55930   5.06752    58.748    54.274 2183.0  0.292  1.57   2 
  1.48842   0.62721   4.81123    22.875    54.170 1632.3  0.095  1.89   2 
  1.45653   0.55448   4.85823    42.275    54.386 2715.6  0.630  1.11   2 
  1.21591   0.55903   4.94675    63.412    54.840 1996.5  0.207  1.69   2 
  1.47691   0.65109   4.72684    10.238    54.408 2069.9  0.416  1.40   2 
  1.46089   0.66058   4.74986    11.286    54.519 2258.1  0.347  1.48   2 
  1.45035   0.58477   4.82804    36.360    54.586 2141.9  0.474  1.37   2 
  1.29921   0.59070   4.98116    49.051    55.197 2323.6  0.415  1.37   2 
  1.32977   0.60376   4.96150    50.863    54.321 1760.3  0.032  1.78   2 
  1.15064   0.57841   5.07519    54.887    55.708 2429.3  0.435  1.29   2 
  1.43699   0.59361   4.83253    37.981    55.089 2249.0  0.423  1.34   2 
  1.30019   0.59336   4.99335    52.650    54.715 2295.6  0.391  1.44   2 
  1.35775   0.66721   4.81996    14.700    54.733 2454.3  0.575  1.24   2 
  1.40070   0.65230   4.82572    17.588    55.460 2434.9  0.436  1.31   2 
  1.42214   0.57841   4.87209    41.940    55.781 2537.0  0.539  1.13   2 
  1.12941   0.57676   5.06101    57.399    55.511 2346.3  0.354  1.38   2 
  1.14824   0.54295   5.06057    59.580    54.975 2228.8  0.338  1.66   2 
  1.47024   0.56448   4.82555    40.054    55.234 2322.5  0.410  1.29   2 
  1.33516   0.56074   4.94811    46.175    55.166 2097.6  0.373  1.48   2 
  1.19379   0.58954   5.06832    52.696    56.026 2568.8  0.533  1.21   2 
  1.47387   0.64994   4.72075    10.950    55.209 1702.9  0.060  1.93   2 
  1.13853   0.55675   5.05296    58.681    55.698 1939.7  0.237  1.83   2 
  1.21983   0.53048   4.97309    60.000    55.469 1931.3  0.012  2.12   2 
  1.02852   0.56978   5.12748    61.444    55.631 1993.3  0.202  1.62   2 
  1.37896   0.57765   4.90432    45.096    55.996 2448.0  0.510  1.26   2 
  1.44404   0.59228   4.82812    37.665    56.157 2255.4  0.517  1.30   2 
  1.24559   0.57401   5.03205    50.362    56.118 2294.5  0.506  1.18   2 
  1.17353   0.58614   5.00793    62.617    56.655 2217.7  0.278  1.57   2 
  1.55516   0.60845   4.76987    21.878    56.963 2490.1  0.407  1.56   2 
  1.41351   0.63696   4.77626    16.748    57.551 2332.8  0.452  1.36   2 
  1.35740   0.57945   4.93338    44.412    57.178 2308.0  0.394  1.26   2 
  1.41064   0.58240   4.89794    45.975    56.508 2417.3  0.619  1.13   2 
  1.23356   0.59378   5.05685    50.850    56.780 2722.4  0.750  0.96   2 
  1.45072   0.56852   4.84967    39.658    56.838 2092.2  0.192  1.76   2 
  1.40107   0.66071   4.78998    16.313    56.833 2075.5  0.286  1.47   2 
  1.52412   0.58977   4.76618    22.915    58.443 2362.9  0.416  1.38   2 
  1.07284   0.55839   5.10476    58.238    56.833 2178.9  0.119  1.83   2 
  1.55984   0.65075   4.64491     9.375    57.028 2028.5  0.459  1.40   2 
  1.45861   0.66816   4.76258    14.350    57.244 2314.9  0.361  1.43   2 
  1.14658   0.55251   5.06378    55.935    57.820 2346.8  0.321  1.46   2 
  1.53311   0.59810   4.76205    22.533    57.543 2494.0  0.561  1.28   2 
  1.31403   0.57591   4.97565    46.941    57.422 2429.1  0.408  1.36   2 
  1.29854   0.60341   5.00028    49.613    57.093 2196.8  0.078  1.86   2 
  1.40408   0.65066   4.77456    15.375    57.677 2280.5  0.448  1.30   2 
  1.47892   0.60937   4.78859    25.883    58.482 2562.2  0.572  1.15   2 
  1.27742   0.58751   5.00953    48.300    57.288 2442.6  0.269  1.42   2 
  1.19351   0.58837   5.05340    52.407    58.453 2643.7  0.553  1.16   2 
  1.05165   0.56923   5.11343    57.844    57.515 2445.5  0.188  1.58   2 
  1.08640   0.57513   5.09180    59.833    58.195 2394.6  0.453  1.24   2 
  1.17757   0.57670   5.00701    62.501    58.820 2221.2  0.369  1.53   2 
  1.42427   0.57484   4.84667    40.519    58.067 2504.7  0.574  1.19   2 
  1.42404   0.57864   4.88451    43.374    58.045 2697.1  0.583  1.04   2 
  1.27298   0.59098   5.01432    49.616    58.019 2562.1  0.498  1.21   2 
  1.52138   0.59847   4.75018    20.176    58.337 2255.2  0.420  1.41   2 
  1.45102   0.58251   4.78558    29.442    58.543 2253.4  0.458  1.24   2 
  1.12963   0.55520   5.07475    56.850    57.851 2446.1  0.615  1.74   2 
  1.48222   0.56617   4.79545    37.032    59.613 2461.1  0.493  1.25   2 
  1.46618   0.64276   4.73460    16.785    58.961 2359.8  0.430  1.32   2 
  1.53948   0.59566   4.76870    24.305    59.023 2234.8  0.387  1.47   2 
  1.47840   0.59208   4.77388    32.153    58.885 2261.3  0.364  1.45   2 
  1.34882   0.58972   4.94334    45.750    58.890 2255.7  0.365  1.33   2 
  1.45830   0.57521   4.82592    39.410    58.999 2050.0  0.206  1.59   2 
  1.39488   0.57911   4.87721    40.903    60.897 2516.5  0.503  1.23   2 
  1.28912   0.56677   4.99108    47.333    58.807 2381.1  0.393  1.25   2 
  1.21773   0.58934   5.02555    50.025    59.358 2714.6  0.580  1.14   2 
  1.06033   0.57756   5.13381    60.725    58.760 1829.3  0.016  2.02   2 
  1.50454   0.57404   4.76068    33.577    59.277 2106.5  0.327  1.40   2 
  1.37443   0.58191   4.92562    44.246    59.330 2550.7  0.563  1.12   2 
  1.22507   0.58607   5.01259    51.285    59.054 2250.5  0.231  1.56   2 
  1.33241   0.64639   4.92607    52.763    58.911 2767.0  0.071  1.38   2 
  1.13358   0.54733   5.06436    55.800    59.020 2088.9  0.105  1.78   2 
  1.23488   0.58064   5.01872    48.891    60.218 2580.0  0.541  1.12   2 
  1.51532   0.59685   4.75695    20.932    59.664 2542.8  0.553  1.19   2 
  1.11739   0.56806   5.04258    63.469    60.450 2318.0  0.365  1.47   2 
  1.40673   0.63325   4.75956    12.788    59.301 1487.6  0.024  2.16   2 
  1.52375   0.58734   4.71602    18.957    59.641 2312.6  0.432  1.30   2 
  1.41399   0.57354   4.77470    28.096    59.785 2056.6  0.201  1.68   2 
  1.29248   0.57307   4.99293    46.488    59.583 2422.9  0.412  1.24   2 
  1.12109   0.56934   5.07442    55.115    61.829 2581.6  0.508  1.21   2 
  1.09925   0.58396   5.09670    60.056    59.528 1955.7  0.203  1.51   2 
  1.18257   0.57623   5.05165    51.592    61.122 2599.6  0.565  1.10   2 
  1.45912   0.61993   4.70781    13.612    59.561 2332.4  0.643  1.00   2 
  1.46264   0.58254   4.75294    30.898    60.245 2271.6  0.389  1.34   2 
  1.11942   0.56102   5.07010    54.829    60.022 2493.3  0.532  1.07   2 
  1.43500   0.59642   4.73578    17.664    60.066 2206.0  0.309  1.57   2 
  1.42586   0.57458   4.81060    35.791    62.931 2515.8  0.541  1.20   2 
  1.46786   0.55222   4.83274    40.482    60.092 2307.7  0.433  1.35   2 
  1.29300   0.58341   4.98468    46.996    60.614 2377.0  0.416  1.28   2 
  1.11675   0.59549   5.05948    59.095    60.007 2169.3  0.333  1.56   2 
  1.43237   0.60453   4.73009    15.900    60.016 1910.6  0.545  1.39   2 
  1.48007   0.58047   4.77654    24.989    60.858 2447.1  0.516  1.23   2 
  1.44000   0.60505   4.77868    29.217    60.281 2344.4  0.533  1.21   2 
  1.47103   0.61355   4.71087    14.813    60.431 1910.4  0.182  1.77   2 
  1.56325   0.60355   4.73900    21.223    60.815 2372.9  0.392  1.45   2 
  1.29863   0.58193   4.96995    45.306    61.423 2505.8  0.506  1.21   2 
  1.26733   0.56548   4.87485    66.000    60.102 1783.4  0.048  2.34   2 
  1.45626   0.56017   4.79281    26.562    60.791 2419.3  0.484  1.29   2 
  1.42605   0.58253   4.79002    28.060    61.236 2503.4  0.613  1.12   2 
  1.14322   0.57042   5.06835    53.650    61.355 2765.5  0.551  1.18   2 
  1.10185   0.57937   5.07672    58.590    62.566 2331.4  0.355  1.43   2 
  1.47026   0.60100   4.69878    12.563    60.990 2472.4  0.179  1.26   2 
  1.45477   0.56440   4.77270    24.124    61.755 2251.2  0.446  1.31   2 
  1.53841   0.58831   4.67250    17.235    62.339 2287.2  0.493  1.30   2 
  1.30576   0.60165   4.94386    59.100    61.185 2714.5  0.024  2.05   2 
  1.53840   0.60747   4.68736    18.555    61.445 2066.8  0.243  1.49   2 
  1.28756   0.59201   4.97346    43.826    63.285 2795.8  0.606  1.07   2 
  1.17967   0.57493   5.04982    48.524    62.398 2512.0  0.490  1.25   2 
  1.43247   0.57773   4.80577    26.840    63.127 2243.6  0.369  1.40   2 
  1.10069   0.58702   5.04468    62.094    62.104 1996.1  0.209  1.66   2 
  1.60938   0.60072   4.68943    19.131    62.860 2037.1  0.331  1.54   2 
  1.50017   0.58679   4.75107    22.420    62.781 2680.8  0.616  1.07   2 
  1.41959   0.58016   4.79164    30.415    62.734 2410.6  0.438  1.30   2 
  1.32718   0.65241   4.87071    63.300    62.224 2372.6  0.000  1.36   2 
  1.08882   0.56797   5.05761    63.527    63.260 2389.8  0.444  1.29   2 
  1.39703   0.53725   4.79997    23.963    62.679 2266.7  0.391  1.34   2 
  1.44451   0.53257   4.76753    25.018    62.892 2364.2  0.475  1.33   2 
  1.17424   0.55036   5.06160    50.184    62.695 2732.1  0.616  1.28   2 
  1.58042   0.59333   4.69041    20.725    63.263 2322.5  0.496  1.26   2 
  1.20466   0.58944   5.02714    47.568    64.301 2745.0  0.638  1.01   2 
  1.11816   0.56993   5.05011    61.252    63.385 2108.3  0.258  1.42   2 
  1.10896   0.56685   5.05186    61.955    63.124 2387.5  0.408  1.40   2 
  1.11508   0.59855   5.02738    60.402    63.495 2058.8  0.273  1.55   2 
  1.54115   0.61253   4.64104    15.150    63.263 1916.6  0.286  1.66   2 
  1.38190   0.54947   4.79257    22.950    63.263 1766.1  0.095  1.74   2 
  1.35608   0.59259   4.90208    41.113    63.992 2222.6  0.418  1.39   2 
  1.37418   0.56253   4.80247    27.850    64.017 2181.9  0.451  1.33   2 
  1.11062   0.58274   5.05263    56.579    66.233 2468.4  0.471  1.24   2 
  1.54837   0.58302   4.63415    16.313    63.718 2233.6  0.227  1.55   2 
  1.40420   0.53864   4.78360    23.952    63.972 1906.5  0.197  1.74   2 
  1.38405   0.56865   4.79184    28.887    64.821 2439.1  0.473  1.29   2 
  1.19295   0.58369   5.03266    50.462    64.656 2540.8  0.517  1.14   2 
  1.11751   0.56899   5.02589    61.770    63.991 2342.4  0.423  1.26   2 
  1.10401   0.59992   5.04380    58.944    64.254 2237.7  0.260  1.56   2 
  1.48985   0.57763   4.68224    14.250    64.129 1762.4  0.172  1.92   2 
  1.51602   0.58252   4.66809    17.587    63.978 1577.1  0.233  1.46   2 
  1.46150   0.56014   4.74439    21.848    64.134 2116.0  0.393  1.41   2 
  1.35695   0.57812   4.79976    30.180    64.294 2184.1  0.380  1.61   2 
  1.40218   0.59193   4.79798    30.548    66.943 2557.2  0.538  1.14   2 
  1.49365   0.58737   4.75120    24.657    64.554 2181.5  0.415  1.44   2 
  1.47646   0.59831   4.69562    11.033    64.445 2070.4  0.258  1.57   2 
  1.16296   0.57452   5.05514    53.031    64.477 2583.0  0.564  1.11   2 
  1.61819   0.58042   4.61063    16.822    64.862 2067.2  0.266  1.49   2 
  1.59395   0.57458   4.63987    19.693    64.622 2116.2  0.310  1.53   2 
  1.47164   0.54337   4.72332    22.361    64.525 1904.3  0.112  1.77   2 
  1.51301   0.56528   4.66313    15.788    64.627 2189.4  0.452  1.30   2 
  1.43490   0.59593   4.79761    34.373    65.522 2351.6  0.412  1.30   2 
  1.43672   0.60281   4.83180    37.288    65.116 2407.1  0.444  1.40   2 
  1.08219   0.57325   5.05069    60.990    64.744 2405.4  0.407  1.22   2 
  1.47119   0.57259   4.69532    14.513    64.887 2203.1  0.571  1.34   2 
  1.42147   0.57760   4.76511    25.113    65.472 2196.6  0.433  1.44   2 
  1.35168   0.55861   4.80920    26.749    65.311 2738.4  0.669  0.98   2 
  1.25027   0.62500   5.01257    41.470    69.016 2560.3  0.574  1.14   2 
  1.15952   0.58344   5.05298    52.284    65.835 2856.9  0.606  1.03   2 
  1.46648   0.57584   4.70451    13.600    65.212 2438.4  0.718  0.88   2 
  1.47835   0.57219   4.68864    14.813    65.147 2116.1  0.917  1.37   2 
  1.45509   0.58184   4.75874    23.283    66.818 2416.0  0.517  1.22   2 
  1.36735   0.57355   4.81285    32.339    65.294 2186.1  0.198  1.63   2 
  1.33577   0.60531   4.92670    41.610    65.316 2208.1  0.353  1.43   2 
  1.21337   0.59523   5.00620    46.780    65.318 2474.0  0.484  1.25   2 
  1.54967   0.55324   4.65331    19.204    65.891 2289.6  0.464  1.31   2 
  1.47806   0.55844   4.71056    21.252    65.798 2387.7  0.392  1.45   2 
  1.42472   0.54736   4.75389    22.612    65.277 1968.3  0.024  1.98   2 
  1.65584   0.57553   4.58265    17.896    65.991 1931.5  0.229  1.73   2 
  1.19390   0.59156   5.03830    48.607    67.413 2526.0  0.534  1.14   2 
  1.05931   0.60643   5.04921    63.155    65.757 2573.1  0.483  1.24   2 
  1.57637   0.56398   4.63924    15.303    65.882 2070.0  0.458  1.41   2 
  1.44603   0.58439   4.78147    24.242    65.891 2465.5  0.434  1.27   2 
  1.20010   0.60590   5.02952    45.870    66.182 2325.4  0.539  1.07   2 
  1.48321   0.55082   4.70013    11.038    66.186 2124.3  0.353  1.41   2 
  1.41790   0.58920   4.79494    32.635    66.398 2294.9  0.426  1.40   2 
  1.40351   0.62799   4.87071    37.226    67.371 2707.2  0.620  0.99   2 
  1.20164   0.59315   5.03105    47.059    66.462 2388.7  0.412  1.43   2 
  1.17111   0.57181   5.05014    51.150    66.186 1871.3  0.223  1.61   2 
  1.36707   0.64683   4.90528    51.338    66.056 2540.3  0.000  1.91   2 
  1.45508   0.58356   4.71173    13.275    66.251 2098.1  0.277  1.74   2 
  1.55702   0.56322   4.69833    13.899    70.823 2301.7  0.445  1.35   2 
  1.19257   0.59931   5.04296    44.890    68.074 2586.1  0.552  1.13   2 
  1.11592   0.59097   5.08418    50.585    66.519 2405.8  0.437  1.26   2 
  1.47659   0.55344   4.70007    12.694    66.478 2470.2  0.659  0.97   2 
  1.39547   0.57513   4.79386    25.680    66.874 2116.0  0.133  1.76   2 
  1.47679   0.57608   4.73716    26.754    66.566 2069.1  0.192  1.56   2 
  1.48765   0.57109   4.68886    12.075    66.771 1982.6  0.405  1.36   2 
  1.51374   0.58462   4.73240    21.937    66.836 1833.1  0.267  1.93   2 
  1.07058   0.58993   5.04108    62.625    66.771 2398.0  0.458  0.95   2 
  1.47018   0.54958   4.70668    12.862    66.965 1862.1  0.172  1.73   2 
  1.19191   0.59995   5.04789    51.419    67.825 2495.4  0.391  1.35   2 
  1.12586   0.58308   5.07517    53.028    68.202 2542.7  0.492  1.21   2 
  1.06190   0.58182   5.07250    57.260    67.360 2143.9  0.439  1.31   2 
  1.54853   0.53692   4.67776    18.826    67.825 2195.4  0.443  1.37   2 
  1.50094   0.58459   4.74068    20.321    68.470 2260.4  0.519  1.38   2 
  1.39470   0.60606   4.81498    27.703    68.796 2403.4  0.485  1.25   2 
  1.29161   0.60930   4.98652    42.382    67.503 2224.2  0.424  1.30   2 
  1.14769   0.60956   5.06960    48.673    69.336 2364.1  0.385  1.39   2 
  1.39282   0.58284   4.79484    25.154    67.742 2260.8  0.365  1.40   2 
  1.43615   0.54505   4.74138    10.175    67.810 2021.1  0.393  1.54   2 
  1.26290   0.62782   4.91875    27.938    67.875 1740.4  0.036  2.07   2 
  1.44749   0.60312   4.80945    33.833    68.113 2387.1  0.318  1.45   2 
  1.04609   0.57051   5.09082    58.221    68.070 2524.7  0.527  1.06   2 
  1.45623   0.61207   4.77373    22.204    69.355 2433.1  0.478  1.25   2 
  1.43065   0.59056   4.79513    24.647    68.687 2045.0  0.258  1.56   2 
  1.38798   0.59724   4.79570    25.713    68.459 2291.4  0.482  1.39   2 
  1.36908   0.63106   4.84190    31.988    69.268 2575.4  0.541  1.18   2 
  1.41174   0.65315   4.85382    33.883    69.270 2529.6  0.495  1.22   2 
  1.37144   0.64425   4.90755    38.270    69.044 2649.3  0.554  1.10   2 
  1.43243   0.57137   4.75264    20.587    68.524 2249.4  0.411  1.41   2 
  1.03022   0.57493   5.10755    57.713    68.654 2221.4  0.457  1.34   2 
  1.22965   0.63377   5.03086    42.832    69.039 2707.7  0.583  1.06   2 
  1.06705   0.58027   5.06066    58.375    68.633 2062.3  0.179  1.72   2 
  1.54303   0.57799   4.73101    17.930    70.456 2349.4  0.442  1.33   2 
  1.12863   0.60249   5.09116    50.357    70.746 2637.7  0.520  1.16   2 
  1.48874   0.57868   4.73589    11.066    69.168 2040.9  0.367  1.41   2 
  1.66206   0.55051   4.61645    15.818    70.198 2119.2  0.357  1.44   2 
  1.41081   0.62892   4.82225    24.091    69.906 2413.3  0.411  1.36   2 
  1.39244   0.60790   4.81471    25.388    69.217 2197.3  0.234  1.47   2 
  1.28208   0.67014   4.96301    52.219    69.076 2025.0  0.024  1.74   2 
  1.40141   0.61294   4.80166     9.525    69.152 1861.8  0.298  1.42   2 
  1.42230   0.64675   4.85059    35.483    69.643 2481.4  0.361  1.30   2 
  1.05875   0.57910   5.07708    57.136    69.439 2170.1  0.249  1.56   2 
  1.61868   0.55969   4.59131    15.750    69.455 2073.6  0.290  1.51   2 
  1.42356   0.63795   4.80749    26.236    70.083 2234.5  0.336  1.47   2 
  1.15139   0.59190   5.05040    52.940    69.930 2214.7  0.264  1.57   2 
  1.07997   0.59544   5.10173    52.253    71.631 2494.4  0.500  1.19   2 
  1.18469   0.61855   5.07004    46.000    69.780 2180.3  0.259  1.53   2 
  1.40398   0.62045   4.81617     9.300    69.975 1814.2  0.246  1.80   2 
  1.04377   0.57903   5.10472    56.438    69.693 2184.2  0.161  1.77   2 
  1.05620   0.58243   5.08527    55.875    70.170 2205.8  0.525  1.23   2 
  1.44229   0.64587   4.80043    27.179    70.418 2239.5  0.396  1.29   2 
  1.37527   0.64509   4.87356    34.684    70.220 2131.3  0.354  1.39   2 
  1.03534   0.58976   5.08569    56.966    70.136 2021.0  0.429  1.29   2 
  1.17196   0.61577   5.08743    43.584    70.675 2750.4  0.621  0.99   2 
  1.61101   0.52936   4.63226    14.053    70.586 1887.8  0.246  1.82   2 
  1.59383   0.52858   4.62585    14.625    70.365 1888.3  0.262  1.45   2 
  1.39570   0.66267   4.89295    37.250    70.408 2142.6  0.317  1.45   2 
  1.51409   0.60699   4.77153    18.962    70.683 2454.5  0.543  1.13   2 
  1.08857   0.58344   5.11797    51.755    70.936 2432.8  0.294  1.48   2 
  1.53963   0.58263   4.71269    10.382    71.076 2243.0  0.382  1.34   2 
  1.55808   0.58823   4.69837    11.404    70.884 2340.1  0.329  1.34   2 
  1.46379   0.63855   4.82745    23.728    72.089 2550.7  0.511  1.20   2 
  1.44942   0.65081   4.83997    28.650    71.041 2571.7  0.527  1.04   2 
  1.41884   0.65443   4.85141    30.336    71.813 2667.2  0.585  1.07   2 
  1.05163   0.58992   5.08606    55.046    71.296 2678.3  0.616  1.08   2 
  1.38013   0.65889   4.88479    31.432    70.966 2444.3  0.460  1.39   2 
  1.10418   0.63590   5.14743    44.772    73.368 2439.7  0.476  1.25   2 
  1.01998   0.59317   5.09208    56.700    70.927 2431.4  0.615  1.06   2 
  1.41657   0.64216   4.82954    24.818    71.096 2313.6  0.429  1.18   2 
  1.46757   0.63304   4.82048    21.150    71.765 2603.5  0.605  1.11   2 
  1.47481   0.65014   4.82211    27.663    71.296 2201.4  0.319  1.40   2 
  1.40826   0.66778   4.86088    33.550    71.447 2426.1  0.421  1.40   2 
  1.45999   0.60068   4.78002     9.368    71.518 2097.1  0.456  1.32   2 
  1.54548   0.59333   4.77507    16.628    71.822 2223.5  0.342  1.46   2 
  1.56599   0.54590   4.67580    13.286    72.212 2188.7  0.422  1.33   2 
  1.58357   0.56380   4.69860    15.046    71.947 2013.7  0.247  1.67   2 
  1.45085   0.66327   4.82901    26.378    72.005 2510.4  0.543  1.15   2 
  1.44006   0.65356   4.82934    25.490    72.173 2420.5  0.522  1.12   2 
  1.17222   0.63517   5.09013    43.103    72.844 2283.6  0.507  1.22   2 
  1.43360   0.66959   4.84168    27.263    71.902 2273.9  0.566  1.20   2 
  1.05499   0.59229   5.08119    53.572    73.112 2513.7  0.593  1.06   2 
  1.50217   0.65167   4.80371    19.338    72.508 2340.2  0.411  1.30   2 
  1.54392   0.61147   4.77490    16.688    72.421 2039.9  0.310  1.83   2 
  1.48142   0.64748   4.82173    22.017    72.818 2570.3  0.569  1.01   2 
  1.18947   0.65951   5.07392    39.909    73.066 2561.4  0.596  1.14   2 
  1.06256   0.62595   5.18084    47.763    72.696 2326.8  0.354  1.32   2 
  1.43950   0.67023   4.82905    28.804    73.142 2603.5  0.588  1.09   2 
  1.43755   0.66954   4.83858    29.413    72.768 2512.6  0.512  1.19   2 
  1.47445   0.64804   4.82709    20.642    72.963 2709.4  0.708  0.86   2 
  1.48102   0.64866   4.81600    20.029    73.515 2542.0  0.521  1.10   2 
  1.10233   0.61854   5.12729    48.274    73.752 1898.0  0.199  1.72   2 
  1.48288   0.64639   4.83359    22.538    73.201 2485.9  0.143  1.59   2 
  1.44399   0.66550   4.84231    27.712    73.331 3059.3  0.732  0.78   2 
  1.50184   0.64929   4.79552    18.770    74.807 2674.2  0.612  1.01   2 
  1.43453   0.66049   4.83764    25.472    74.223 2861.6  0.663  0.89   2 
  1.19049   0.66411   5.06655    41.519    73.900 2045.7  0.385  1.41   2 
  1.26226   0.68135   5.00467    39.600    73.655 1909.6  0.071  2.03   2 
  1.44998   0.65515   4.84141    23.067    74.005 2677.8  0.503  1.06   2 
  1.16776   0.63995   5.10728    45.694    73.883 2150.9  0.438  1.26   2 
  1.14831   0.63099   5.11623    46.528    74.257 2138.1  0.253  1.57   2 
  1.13464   0.64346   5.12882    42.989    74.490 2585.3  0.640  1.16   2 
  1.13653   0.63063   5.08603    47.612    76.469 2616.7  0.577  1.11   2 
  0.96736   0.60004   5.14028    54.375    74.045 2016.2  0.333  1.26   2 
  1.51799   0.62534   4.78287    16.486    74.892 2578.1  0.528  1.16   2 
  1.40257   0.63459   4.84318    24.208    75.326 2753.4  0.624  1.02   2 
  1.10967   0.58904   5.09514    50.544    74.814 2493.4  0.402  1.38   2 
  1.32352   0.57855   4.85475    11.587    74.630 1907.4  0.036  2.55   2 
  1.47695   0.64628   4.80991    21.371    75.035 2571.5  0.587  1.05   2 
  1.39943   0.66309   4.85797    26.992    75.736 2993.2  0.688  0.97   2 
  1.17019   0.67458   5.09288    41.486    75.390 2746.8  0.703  0.87   2 
  1.16340   0.64253   5.11279    42.713    75.149 2601.8  0.530  1.10   2 
  1.13002   0.60316   5.00894    51.232    75.579 2135.5  0.377  1.39   2 
  1.18082   0.64479   5.09346    43.364    75.814 2318.8  0.491  1.23   2 
  1.13438   0.61997   5.09186    47.071    75.914 2285.2  0.365  1.37   2 
  1.24499   0.63735   5.03252    43.012    76.059 2226.9  0.083  1.47   2 
  1.40291   0.66743   4.87954    25.800    76.124 2595.6  0.671  1.03   2 
  1.21544   0.68546   5.03881    38.275    76.254 2459.1  0.365  1.40   2 
  1.38781   0.67145   4.87596    27.990    76.435 2390.2  0.338  1.46   2 
  1.04621   0.59589   5.06416    53.325    76.427 2358.5  0.289  1.27   2 
  1.22356   0.65638   5.04506    39.525    77.152 2988.6  0.718  0.82   2 
  1.09059   0.60513   5.02596    52.515    76.643 2357.0  0.427  1.21   2 
  1.19636   0.65039   5.07407    40.556    77.195 2410.1  0.619  1.08   2 
  1.12231   0.61530   5.00334    51.772    77.228 2540.8  0.520  1.20   2 
  1.03704   0.60390   5.06548    53.550    76.730 2897.4  0.861  0.61   2 
  1.34147   0.67586   4.91250    30.100    76.932 2702.2  0.770  0.86   2 
  1.16459   0.63866   5.07887    40.878    79.560 2426.0  0.456  1.38   2 
  1.22604   0.64024   5.06168    41.306    77.000 2552.9  0.428  1.20   2 
  1.17340   0.63349   5.08028    43.880    78.442 3020.6  0.696  0.94   2 
  1.08702   0.62687   5.04815    47.675    79.180 2570.1  0.594  1.05   2 
  1.24657   0.65487   5.03215    38.175    77.639 2655.6  0.599  0.93   2 
  1.03174   0.60608   5.06933    53.250    77.596 2567.8  0.813  0.77   2 
  1.08754   0.60920   5.01905    53.381    78.429 2524.0  0.509  1.15   2 
  1.26790   0.68475   4.97856    35.259    78.770 2637.3  0.475  1.18   2 
  1.23471   0.64820   5.04106    39.439    79.443 2883.1  0.714  0.86   2 
  1.27898   0.68403   4.97094    35.700    79.371 2115.0  0.122  1.72   2 
  1.05434   0.61365   5.15719    43.075    80.185 2199.5  0.377  1.45   2 
  1.20385   0.65934   5.07516    38.400    79.891 2202.4  0.321  1.35   2 
  1.25962   0.68184   5.00631    36.713    80.735 2333.1  0.619  1.41   2 
  0.93354   0.59353   5.20416    45.637    80.865 2620.4  0.786  1.17   2 
  1.01867   0.60276   5.16741    42.050    81.310 2128.7  0.340  1.48   2 
  1.00578   0.61614   5.18601    41.025    81.450 1833.3  0.163  1.66   2 
